Conductivity (mS/cm),Time (sec)
11.42 ,0.00
11.25 ,5.00
11.06 ,10.00
10.87 ,15.00
10.72 ,20.00
10.56 ,25.00
10.41 ,30.00
10.26 ,35.00
10.12 ,40.00
9.990 ,45.00
9.862 ,50.00
9.764 ,55.00
9.646 ,60.00
9.512 ,65.00
9.405 ,70.00
9.301 ,75.00
9.200 ,80.00
9.103 ,85.00
9.016 ,90.00
8.927 ,95.00
8.840 ,100.00
8.757 ,105.00
8.677 ,110.00
8.600 ,115.00
8.525 ,120.00
8.467 ,125.00
8.396 ,130.00
8.329 ,135.00
8.264 ,140.00
8.200 ,145.00
8.138 ,150.00
8.078 ,155.00
8.032 ,160.00
7.976 ,165.00
7.919 ,170.00
7.866 ,175.00
7.815 ,180.00
7.765 ,185.00
7.725 ,190.00
7.677 ,195.00
7.631 ,200.00
7.585 ,205.00
7.541 ,210.00
7.499 ,215.00
7.456 ,220.00
7.421 ,225.00
7.381 ,230.00
7.342 ,235.00
7.306 ,240.00
7.269 ,245.00
7.233 ,250.00
7.197 ,255.00
7.170 ,260.00
7.137 ,265.00
7.083 ,270.00
7.052 ,275.00
7.019 ,280.00
6.988 ,285.00
6.959 ,290.00
6.932 ,295.00
6.902 ,300.00
6.873 ,305.00
6.845 ,310.00
6.819 ,315.00
6.791 ,320.00
6.766 ,325.00
6.745 ,330.00
6.721 ,335.00
6.696 ,340.00
6.672 ,345.00
6.648 ,350.00
6.625 ,355.00
6.608 ,360.00
6.586 ,365.00
6.562 ,370.00
6.543 ,375.00
6.521 ,380.00
6.501 ,385.00
6.479 ,390.00
6.463 ,395.00
6.444 ,400.00
6.426 ,405.00
6.406 ,410.00
6.387 ,415.00
6.368 ,420.00
6.351 ,425.00
6.336 ,430.00
6.318 ,435.00
6.303 ,440.00
6.283 ,445.00
6.267 ,450.00
6.250 ,455.00
6.234 ,460.00
6.222 ,465.00
6.207 ,470.00
6.191 ,475.00
6.176 ,480.00
6.161 ,485.00
6.147 ,490.00
6.133 ,495.00
6.118 ,500.00
6.102 ,505.00
6.089 ,510.00
6.075 ,515.00
6.063 ,520.00
6.051 ,525.00
6.041 ,530.00
6.026 ,535.00
6.015 ,540.00
6.004 ,545.00
5.991 ,550.00
5.979 ,555.00
5.965 ,560.00
5.957 ,565.00
5.945 ,570.00
5.933 ,575.00
5.922 ,580.00
5.910 ,585.00
5.898 ,590.00
5.888 ,595.00
5.879 ,600.00
5.869 ,605.00
5.858 ,610.00
5.846 ,615.00
5.836 ,620.00
5.827 ,625.00
5.818 ,630.00
5.808 ,635.00
5.799 ,640.00
5.791 ,645.00
5.781 ,650.00
5.770 ,655.00
5.762 ,660.00
5.753 ,665.00
5.746 ,670.00
5.736 ,675.00
5.727 ,680.00
5.719 ,685.00
5.712 ,690.00
5.714 ,695.00
5.705 ,700.00
5.686 ,705.00
5.689 ,710.00
5.680 ,715.00
5.671 ,720.00
5.664 ,725.00
5.655 ,730.00
5.649 ,735.00
5.642 ,740.00
5.635 ,745.00
5.628 ,750.00
5.619 ,755.00
5.612 ,760.00
5.605 ,765.00
5.600 ,770.00
5.592 ,775.00
5.586 ,780.00
5.579 ,785.00
5.572 ,790.00
5.565 ,795.00
5.559 ,800.00
5.552 ,805.00
5.546 ,810.00
5.540 ,815.00
5.533 ,820.00
5.527 ,825.00
5.520 ,830.00
5.514 ,835.00
5.509 ,840.00
5.504 ,845.00
5.496 ,850.00
5.490 ,855.00
5.484 ,860.00
5.479 ,865.00
5.472 ,870.00
5.468 ,875.00
5.462 ,880.00
5.456 ,885.00
5.450 ,890.00
5.445 ,895.00
5.440 ,900.00
5.434 ,905.00
5.429 ,910.00
5.424 ,915.00
5.418 ,920.00
5.414 ,925.00
5.408 ,930.00
5.402 ,935.00
5.397 ,940.00
5.393 ,945.00
5.388 ,950.00
5.383 ,955.00
5.378 ,960.00
5.374 ,965.00
5.368 ,970.00
5.364 ,975.00
5.359 ,980.00
5.355 ,985.00
5.350 ,990.00
5.345 ,995.00
5.341 ,1000.00
5.336 ,1005.00
5.333 ,1010.00
5.329 ,1015.00
5.324 ,1020.00
5.319 ,1025.00
5.315 ,1030.00
5.311 ,1035.00
5.306 ,1040.00
5.303 ,1045.00
5.299 ,1050.00
5.294 ,1055.00
5.290 ,1060.00
5.286 ,1065.00
5.282 ,1070.00
5.277 ,1075.00
5.274 ,1080.00
5.269 ,1085.00
5.266 ,1090.00
5.262 ,1095.00
5.258 ,1100.00
5.255 ,1105.00
5.251 ,1110.00
5.247 ,1115.00
5.243 ,1120.00
5.239 ,1125.00
5.236 ,1130.00
5.232 ,1135.00
5.228 ,1140.00
5.224 ,1145.00
5.220 ,1150.00
5.217 ,1155.00
5.213 ,1160.00
5.211 ,1165.00
5.207 ,1170.00
5.204 ,1175.00
5.200 ,1180.00
5.197 ,1185.00
5.194 ,1190.00
5.190 ,1195.00
5.187 ,1200.00
5.183 ,1205.00
5.180 ,1210.00
5.177 ,1215.00
5.174 ,1220.00
5.171 ,1225.00
5.167 ,1230.00
5.165 ,1235.00
5.161 ,1240.00
5.158 ,1245.00
5.155 ,1250.00
5.153 ,1255.00
5.148 ,1260.00
5.146 ,1265.00
5.143 ,1270.00
5.139 ,1275.00
5.136 ,1280.00
5.133 ,1285.00
5.131 ,1290.00
5.129 ,1295.00
5.126 ,1300.00
5.122 ,1305.00
5.120 ,1310.00
5.117 ,1315.00
5.114 ,1320.00
5.111 ,1325.00
5.109 ,1330.00
5.105 ,1335.00
5.103 ,1340.00
5.099 ,1345.00
5.097 ,1350.00
5.095 ,1355.00
5.092 ,1360.00
5.089 ,1365.00
5.087 ,1370.00
5.085 ,1375.00
5.081 ,1380.00
5.079 ,1385.00
5.076 ,1390.00
5.074 ,1395.00
5.072 ,1400.00
5.069 ,1405.00
5.067 ,1410.00
5.064 ,1415.00
5.061 ,1420.00
5.059 ,1425.00
5.056 ,1430.00
5.054 ,1435.00
5.052 ,1440.00
5.049 ,1445.00
5.047 ,1450.00
5.045 ,1455.00
5.043 ,1460.00
5.039 ,1465.00
5.037 ,1470.00
5.035 ,1475.00
5.032 ,1480.00
5.031 ,1485.00
5.029 ,1490.00
5.027 ,1495.00
5.024 ,1500.00
5.022 ,1505.00
5.019 ,1510.00
5.017 ,1515.00
5.015 ,1520.00
5.013 ,1525.00
5.010 ,1530.00
5.009 ,1535.00
5.006 ,1540.00
5.004 ,1545.00
5.002 ,1550.00
5.000 ,1555.00
4.998 ,1560.00
4.996 ,1565.00
4.993 ,1570.00
4.992 ,1575.00
4.989 ,1580.00
4.988 ,1585.00
4.986 ,1590.00
4.985 ,1595.00
4.982 ,1600.00
4.980 ,1605.00
4.978 ,1610.00
4.976 ,1615.00
4.973 ,1620.00
4.972 ,1625.00
4.971 ,1630.00
4.968 ,1635.00
4.967 ,1640.00
4.965 ,1645.00
4.963 ,1650.00
4.960 ,1655.00
4.959 ,1660.00
4.957 ,1665.00
4.955 ,1670.00
4.953 ,1675.00
4.951 ,1680.00
4.949 ,1685.00
4.947 ,1690.00
4.946 ,1695.00
4.945 ,1700.00
4.943 ,1705.00
4.941 ,1710.00
4.927 ,1715.00
4.844 ,1720.00